File: course/data/exercises/X-ray_Diffraction/XRD_theory.dat
1.0000 5.5753e-86
1.5500 0.0317888
2.1000 3.63374e-05
2.6500 0.411519
3.2000 4.59431
3.7500 0.00683704
4.3000 0.208184
4.8500 0.00155761
5.4000 3.10893e-13
5.9500 2.43432e-06
6.5000 0.0516311
7.0500 0.276448
7.6000 0.0908035
8.1500 0.719618
8.7000 0.0028994
9.2500 6.20819
9.8000 0.00205398
10.3500 2.3662
10.9000 0.00133027
11.4500 0.693368
12.0000 11.0946
12.5500 0.000466468
13.1000 0.0681758
13.6500 0.000122011
14.2000 10.1648
14.7500 0.191369
15.3000 2.18232e-08
15.8500 0.277449
16.4000 0.187048
16.9500 6.80813e-09
17.5000 5.26139e-05
18.0500 0.000139328
18.6000 0.00133842
19.1500 0.12197
19.7000 0.0386251
20.2500 0.000147226
20.8000 4.86741e-17
21.3500 3.83345e-25
21.9000 0.342532
22.4500 0.00139907
23.0000 9.77923e-22
23.5500 0.00256665
24.1000 8.84925e-37
24.6500 0.00417129
25.2000 3.2325e-28
25.7500 0.000871979
26.3000 2.7349e-16
26.8500 0.00273887
27.4000 3.48351e-20
27.9500 0.000361168
28.5000 4.40456e-58
29.0500 0.000297973
29.6000 4.5821e-12
30.1500 7.05937e-141
30.7000 0
31.2500 0
31.8000 0
32.3500 0
32.9000 0
33.4500 0
34.0000 0
34.5500 0
35.1000 0
35.6500 0
36.2000 0
36.7500 0
37.3000 0
37.8500 0
38.4000 0
38.9500 0
39.5000 0
40.0500 0
40.6000 0
41.1500 0
41.7000 0
42.2500 0
42.8000 0
43.3500 0
43.9000 0
44.4500 0
45.0000 0
45.5500 0
46.1000 0
46.6500 0
47.2000 0
47.7500 0
48.3000 0
48.8500 0
49.4000 0
49.9500 0
50.5000 0
51.0500 0
51.6000 0
52.1500 0
52.7000 0
53.2500 0
53.8000 0
54.3500 0
54.9000 0
55.4500 0
56.0000 0
56.5500 0
57.1000 0
57.6500 0
58.2000 0
58.7500 0
59.3000 0
59.8500 0
60.4000 0
60.9500 0
61.5000 0
62.0500 0
62.6000 0
63.1500 0
63.7000 0
64.2500 0
64.8000 0
65.3500 0
65.9000 0
66.4500 0
67.0000 0
67.5500 0
68.1000 0
68.6500 0
69.2000 0
69.7500 0
70.3000 0
70.8500 0
71.4000 0
71.9500 0
72.5000 0
73.0500 0
73.6000 0
74.1500 0
74.7000 0
75.2500 0
75.8000 0
76.3500 0
76.9000 0
77.4500 0
78.0000 0
78.5500 0
79.1000 0
79.6500 0
80.2000 0
80.7500 0
81.3000 0
81.8500 0
82.4000 0
82.9500 0
83.5000 0
84.0500 0
84.6000 0
85.1500 0
85.7000 0
86.2500 0
86.8000 0
87.3500 0
87.9000 0
88.4500 0
89.0000 0
89.5500 0
90.1000 0
90.6500 0
91.2000 0
91.7500 0
92.3000 0
92.8500 0
93.4000 0
93.9500 0
94.5000 0
95.0500 0
95.6000 0
96.1500 0
96.7000 0
97.2500 0
97.8000 0
98.3500 0
98.9000 0
99.4500 0
100.0000 0
100.5500 0
101.1000 0
101.6500 0
102.2000 0
102.7500 0
103.3000 0
103.8500 0
104.4000 0
104.9500 0
105.5000 0
106.0500 0
106.6000 0
107.1500 0
107.7000 0
108.2500 0
108.8000 0
109.3500 0
109.9000 0
110.4500 0
111.0000 0
111.5500 0
112.1000 0
112.6500 0
113.2000 0
113.7500 0
114.3000 0
114.8500 0
115.4000 0
115.9500 0
116.5000 0
117.0500 0
117.6000 0
118.1500 0
118.7000 0
119.2500 0
119.8000 0
120.3500 0
120.9000 0
121.4500 0
122.0000 0
122.5500 0
123.1000 0
123.6500 0
124.2000 0
124.7500 0
125.3000 0
125.8500 0
126.4000 0
126.9500 0
127.5000 0
128.0500 0
128.6000 0
129.1500 0
129.7000 0
130.2500 0
130.8000 0
131.3500 0
131.9000 0
132.4500 0
133.0000 0
133.5500 0
134.1000 0
134.6500 0
135.2000 0
135.7500 0
136.3000 0
136.8500 0
137.4000 0
137.9500 0
138.5000 0
139.0500 0
139.6000 0
140.1500 0
140.7000 0
141.2500 0
141.8000 0
142.3500 0
142.9000 0
143.4500 0
144.0000 0
144.5500 0
145.1000 0
145.6500 0
146.2000 0
146.7500 0
147.3000 0
147.8500 0
148.4000 0
148.9500 0
149.5000 0
150.0500 0
150.6000 0
151.1500 0
151.7000 0
152.2500 0
152.8000 0
153.3500 0
153.9000 0
154.4500 0
155.0000 0
155.5500 0
156.1000 0
156.6500 0
157.2000 0
157.7500 0
158.3000 0
158.8500 0
159.4000 0
159.9500 0
160.5000 0
161.0500 0
161.6000 0
162.1500 0
162.7000 0
163.2500 0
163.8000 0
164.3500 0
164.9000 0
165.0000 0